File: composite-ufjc-scission-characterization/AFM_chain_tensile_test_curve_fit_data/al-maawali-et-al-pdms-si-o-chain-a-force-nN-vs-chain-end-to-end-distance-nm.csv
22.3456, -0.227061
23.4934, -0.221229
24.3668, -0.260109
25.4398, -0.258165
26.8621, -0.232893
27.9351, -0.250389
29.1578, -0.250389
30.4803, -0.225117
31.753, -0.225117
33.0505, -0.217341
33.874, -0.260109
35.3712, -0.213453
36.519, -0.221229
37.3674, -0.262053
38.8646, -0.232893
39.8877, -0.230949
40.6862, -0.267885
42.383, -0.232893
43.7804, -0.207621
44.9532, -0.205677
45.2776, -0.283437
47.0243, -0.227061
48.7711, -0.190124
49.3949, -0.234837
50.7673, -0.219285
51.4161, -0.262053
52.6138, -0.252333
54.0362, -0.230949
54.5103, -0.295101
54.8347, -0.36703
56.4317, -0.332037
56.9807, -0.382582
57.3799, -0.450622
57.6794, -0.520607
57.7542, -0.598367
58.6775, -0.715008
58.7024, -0.615863
59.5009, -0.738336
59.7255, -0.819984
59.7505, -0.905521
60.4242, -1.04355
60.8235, -0.919129
60.8484, -1.29627
60.9732, -1.09409
61.0979, -1.18935
61.1978, -1.45568
61.2726, -1.36236
61.4722, -1.52955
61.8465, -1.59759