File: composite-ufjc-scission-characterization/AFM_chain_tensile_test_curve_fit_data/hugel-et-al-pva-c-c-chain-b-force-pN-vs-chain-end-to-end-distance-nm.csv
818.903, -4.48837
844.926, -4.56797
871.365, 2.34722
901.54, 6.08869
928.866, 7.18161
951.644, 13.2321
982.087, 16.3194
1016.01, 14.2201
1045.75, 5.77914
1073.07, 7.95899
1100.68, 8.37561
1126.96, 5.14975
1152.46, 4.46474
1184.4, 11.376
1211.22, 12.6554
1242.93, 3.90253
1273.72, 7.95548
1299.39, 4.13493
1330.26, 7.09629
1355.28, 4.99916
1381.98, 5.08753
1408.26, 1.14943
1437.38, 3.43751
1464.15, 2.51271
1493.55, 4.86944
1519.63, 6.344
1545.92, 5.36164
1573.24, 4.37631
1600.11, 2.28446
1627.88, -0.763675
1653.59, 0.508655
1680.26, 2.6691
1710.61, 0.0519021
1739, -0.57986
1764.51, 1.65387
1790.01, 1.52029
1818.11, -2.93462
1846.69, 3.02129
1874.56, 3.86074
1901.89, 9.14533
1928.41, 4.46051
1956.9, 12.8504
1985.38, 6.28936
2010.35, 7.66793
2034.82, 8.91189
2058.25, 14.6397
2076.4, 17.7503
2096.97, 19.4491
2120.22, 11.1668
2145.28, 14.255
2168.91, 14.0714
2194.71, 8.10967
2216.73, 16.9259
2244.51, 14.7309
2268.2, 18.4181
2297.34, 15.5712
2326.29, 16.0237
2352.56, 21.6458
2379.31, 18.1461
2406.63, 15.6523
2433.96, 20.1978
2462.27, 28.1918
2490.89, 24.7653
2513.66, 20.2569
2542.29, 26.9583
2570.59, 25.83
2597.91, 25.8503
2626.87, 28.7449
2650.94, 33.0725
2679.9, 34.9615
2706.07, 30.5814
2734.21, 31.8413
2761.87, 37.0335
2791.48, 42.712
2816.53, 43.1077
2843.86, 51.6756
2869.55, 47.4568
2898.51, 49.2022
2927.47, 57.8431
2951.54, 59.5849
2980.49, 60.8274
3006.68, 58.71
3035.15, 65.3932
3062.47, 64.0308
3089.8, 70.4618
3117.14, 77.0185
3143.49, 81.7069
3171.8, 86.6123
3198.38, 97.3585
3226.46, 93.9435
3254.36, 99.6207
3278.85, 106.469
3310.73, 110.221
3334.17, 126.239
3363.88, 122.286
3390.46, 135.546
3418.54, 134.729
3445.13, 150.671
3470.18, 149.935
3499.8, 167.304
3528.27, 169.588
3554.47, 182.931
3581.82, 198.036
3609.15, 205.598
3638.76, 211.319
3663.84, 231.282
3691.18, 244.878
3717.38, 254.953
3736.78, 280.108
3768.69, 303.26
3796.03, 316.856
3823.39, 337.994
3851.48, 343.211
3878.66, 378.385
3901.66, 405.931
3927.3, 438.273
3953.37, 469.322
3976.18, 498.904
3983.06, 529.68
4007.49, 549.092
4024.13, 586.527
4045.81, 621.438
4062.95, 658.457
4085.79, 704.732
4097.24, 752.507
4113.23, 788.217
4134.71, 838.715
4149.8, 876.738
4162.61, 915.242
4177.24, 954.441
4186.87, 999.248
4205.84, 1050.25
4216.14, 1084.95
4227.14, 1132.92
4248.18, 1193.58
4257.71, 1254.78
4271.13, 1311.75
4284.87, 1364.81
4291.76, 1403.78
4300.91, 1435.97
4310.1, 1491.08
4322.7, 1540.19
4334.75, 1603.93
4344.52, 1663.77
4353.67, 1694.45
4362.85, 1740.08
4369.71, 1762.64
4374.32, 1797.7
4374.38, 1839.27
4385.07, 1881.51
4399.56, 1927.53
4401.89, 1965.99
4411.96, 2000.39
4418.08, 2031.98
4420.25, 2062.92
4433.95, 2089.71