File: composite-ufjc-scission-characterization/AFM_chain_tensile_test_curve_fit_data/hugel-et-al-pva-c-c-chain-a-force-pN-vs-chain-end-to-end-distance-nm.csv
158.022, 16.1234
184.316, 19.6911
211.652, 28.5943
239.726, 22.8352
267.163, 21.655
293.606, 16.8729
320.921, 11.4344
350.632, 10.4509
385.451, 21.7411
412.47, 20.8594
441.615, 21.1308
469.849, 20.6052
498.531, 15.5968
525.669, 15.8643
550.713, 14.6217
573.561, 16.6691
598.182, 20.8536
624.13, 30.1196
650.577, 29.8376
674.91, 32.654
701.133, 33.2298
726.103, 32.148
753.579, 33.9282
780.904, 34.954
808.686, 36.4847
840.056, 52.1811
864.561, 74.9883
893.135, 95.4807
919.28, 123.154
941.86, 144.894
957.743, 176.534
969.085, 206.813
981.587, 242.365
988.644, 268.924
993.054, 297.179
1006.97, 325.52
1015.23, 385.881
1026.28, 434.82
1035.62, 516.583
1035.82, 471.515
1037.31, 551.342
1048.05, 605.737
1050.5, 646.585
1061.02, 677.448
1062, 722.098
1064.09, 766.274
1071.13, 812.609
1071.31, 860.04
1082.3, 900.125
1083.22, 984.674
1086.91, 942.797
1088.47, 1026.74
1101.3, 1116.73
1101.68, 1070.25
1101.82, 1164.17
1106.79, 1199.65