File: composite-ufjc-scission-characterization/AFM_chain_tensile_test_curve_fit_data/ortiz-and-hadziioannou-pmaa-c-c-chain-g-force-nN-vs-chain-end-to-end-distance-nm.csv
32.8122, -0.0116097
33.9146, -2.02781e-05
34.6024, -0.00702101
37.7199, -0.0416259
40.3368, -0.0308645
40.8403, -0.0444479
43.0442, -0.0332845
43.184, -0.0104211
44.0563, -0.0069632
44.3756, -0.0279046
45.1094, -0.0329689
46.7158, -0.0314746
47.5882, -0.0268539
48.5986, -0.018362
48.964, -0.037367
49.6982, -0.0385554
50.8918, -0.0335582
51.1235, -0.00914772
51.5342, -0.0343558
52.3153, -0.0250808
52.6805, -0.0460237
53.7371, -0.0340451
54.6092, -0.0325251
54.7905, -0.0577252
55.8932, -0.0434226
56.5354, -0.047321
57.0848, -0.0609061
58.418, -0.0361464
59.382, -0.0330792
59.7473, -0.0536346
60.4358, -0.0517206
61.4924, -0.0401296
61.6735, -0.0672677
62.177, -0.0820139
62.9111, -0.0832023
63.9679, -0.0700609
64.2871, -0.0925526
65.2975, -0.0836732
66.1237, -0.0821516
66.8114, -0.0895399
67.6807, -0.119028
67.8219, -0.0806605
68.8758, -0.0981391
69.655, -0.108631
69.9746, -0.126472
70.4782, -0.140055
71.1632, -0.176901
71.3505, -0.135822
71.8968, -0.183903
72.216, -0.206395
72.5819, -0.219974
73.6806, -0.249469
73.6839, -0.213811
74.3653, -0.290579
74.4144, -0.255309
74.8694, -0.297961
75.0045, -0.325872
75.4155, -0.348367
75.7804, -0.372023
76.146, -0.389478