File: composite-ufjc-scission-characterization/AFM_chain_tensile_test_curve_fit_data/ortiz-and-hadziioannou-pmaa-c-c-chain-d-force-nN-vs-chain-end-to-end-distance-nm.csv
30.6056, -0.0522304
31.8464, -0.0336691
32.4891, -0.0309783
33.2686, -0.0387574
33.588, -0.058536
34.7375, -0.0349327
34.8255, -0.0764086
35.8824, -0.0617168
36.709, -0.0551565
37.12, -0.0780391
37.6234, -0.0927853
38.1276, -0.100167
38.6771, -0.113365
39.3191, -0.118038
40.053, -0.122715
40.2342, -0.147915
41.1031, -0.181666
41.1528, -0.140583
41.6529, -0.191763
42.3836, -0.230936
42.5708, -0.190632
43.1177, -0.232124
43.2525, -0.2643
43.6146, -0.318963
43.6571, -0.355786
43.8023, -0.273621
44.1606, -0.370533