File: composite-ufjc-scission-characterization/AFM_chain_tensile_test_curve_fit_data/ortiz-and-hadziioannou-pmaa-c-c-chain-h-force-nN-vs-chain-end-to-end-distance-nm.csv
53.1889, -0.00728178
53.8771, -0.00846858
54.6114, -0.0084942
54.9311, -0.025172
55.5272, -0.0306192
56.3536, -0.0279348
57.4112, -0.00549109
57.8221, -0.027986
58.2343, -0.0376903
59.3837, -0.014087
59.5188, -0.0427739
60.2535, -0.0381484
61.264, -0.0284937
61.9982, -0.0300697
62.5483, -0.036678
63.145, -0.0347609
63.9249, -0.0378889
64.9822, -0.0193211
65.348, -0.0336749
66.4048, -0.0193707
66.9087, -0.0298534
67.6434, -0.0248403
68.3775, -0.0268039
68.5133, -0.0477388
69.8004, -0.0245279
70.3043, -0.0342354
71.1313, -0.0245743
71.3128, -0.0470613
72.4151, -0.0370222
73.2879, -0.028138
73.8377, -0.0378471
74.3878, -0.044843
74.9376, -0.0549397
75.0272, -0.0789738
76.2689, -0.050335
76.819, -0.0565557
77.6458, -0.0488326
78.0573, -0.0659012
78.3769, -0.0841294
79.2493, -0.0791211
79.9838, -0.0760459
81.0408, -0.0609665
81.2219, -0.0873294
82.2329, -0.0730236
82.9677, -0.0668477
83.3789, -0.0874047
83.4688, -0.107175
84.5256, -0.0936462
85.444, -0.0878643
85.6257, -0.108026
86.2679, -0.111536
86.6338, -0.12434
87.4596, -0.127857
87.5037, -0.146851
88.4222, -0.139906
88.5571, -0.170919
89.4757, -0.162036
90.3484, -0.154702
90.5268, -0.210522
90.8525, -0.162084
91.3509, -0.231481
91.3995, -0.202026
92.2239, -0.221047
92.4509, -0.247799
93.1394, -0.246272
93.4586, -0.268376
93.9567, -0.342037
94.0086, -0.276148
94.1445, -0.29592
94.5067, -0.349808
94.6856, -0.40059
94.827, -0.359897
95.1435, -0.411071
95.5089, -0.430076