File: composite-ufjc-scission-characterization/AFM_chain_tensile_test_curve_fit_data/ortiz-and-hadziioannou-pmaa-c-c-chain-a-force-nN-vs-chain-end-to-end-distance-nm.csv
8.07547, -0.0177236
8.99279, -0.0235695
9.86467, -0.0243751
10.782, -0.0306087
11.8382, -0.022506
13.5818, -0.0268304
14.085, -0.0435146
14.8184, -0.0536177
15.69, -0.0579117
16.6999, -0.0548461
16.9259, -0.0924509
17.6595, -0.0994532
17.7936, -0.138218
18.1119, -0.171174
18.7083, -0.173521
18.976, -0.256864
19.0257, -0.215392
19.2944, -0.287882
19.7047, -0.316966
19.8266, -0.489451
19.8308, -0.443715
19.8349, -0.399142
19.8388, -0.356506