File: composite-ufjc-scission-characterization/AFM_chain_tensile_test_curve_fit_data/ortiz-and-hadziioannou-pmaa-c-c-chain-e-force-nN-vs-chain-end-to-end-distance-nm.csv
27.8542, -0.0288786
29.9648, -0.0332158
31.894, -0.0150661
33.5925, -0.00931137
34.3266, -0.0120502
35.3797, -0.0376683
36.7561, -0.0419799
37.1713, -0.0183509
38.7774, -0.0199574
38.8238, -0.0145326
40.2918, -0.0203978
41.3021, -0.0138439
41.6215, -0.0332349
42.7213, -0.0511027
43.7778, -0.041062
44.1429, -0.0631678
45.0157, -0.0542835
45.9335, -0.0543155
46.8982, -0.043884
47.6326, -0.0423593
48.1362, -0.0559427
48.6859, -0.0675898
49.1893, -0.0823361
49.7396, -0.0870064
50.6573, -0.0882012
51.1615, -0.0955832
51.5268, -0.114976
52.3988, -0.115006
53.4527, -0.132872
53.4556, -0.101477
53.6335, -0.162724
54.3676, -0.165462
54.6869, -0.186016
55.2365, -0.198051
55.6012, -0.224808
56.2441, -0.220179
56.4247, -0.252743
57.2047, -0.254321
57.4315, -0.284174
57.7508, -0.304728