File: composite-ufjc-scission-characterization/AFM_chain_tensile_test_curve_fit_data/ortiz-and-hadziioannou-pmaa-c-c-chain-b-force-nN-vs-chain-end-to-end-distance-nm.csv
18.3086, -0.0273829
21.4723, -0.0592762
22.2057, -0.0686041
22.5251, -0.0891579
23.2595, -0.0876331
23.9442, -0.127967
24.1318, -0.0841751
24.4443, -0.179535
24.4475, -0.144264
25.1781, -0.184599
25.4976, -0.20399
25.5405, -0.236162
25.9982, -0.249357