File: composite-ufjc-scission-characterization/AFM_chain_tensile_test_curve_fit_data/ortiz-and-hadziioannou-pmaa-c-c-chain-c-force-nN-vs-chain-end-to-end-distance-nm.csv
19.8687, -0.0309257
20.557, -0.0313373
21.2908, -0.0367892
23.9064, -0.0399812
24.4556, -0.0566671
25.1425, -0.0729701
25.876, -0.0815228
26.1483, -0.11409
27.0656, -0.120712
27.4305, -0.145143
27.7943, -0.181202
28.1134, -0.204857
29.1693, -0.20063
29.2105, -0.251794
29.6673, -0.274291
29.7093, -0.317315
29.798, -0.350652
30.162, -0.385161