File: composite-ufjc-scission-characterization/AFM_chain_tensile_test_curve_fit_data/ortiz-and-hadziioannou-pmaa-c-c-chain-f-force-nN-vs-chain-end-to-end-distance-nm.csv
28.4979, -0.0149476
30.5172, -0.0154056
35.611, -0.0186841
36.7135, -0.00670706
37.9496, -0.0389207
39.1894, -0.0315996
42.1272, -0.0243378
43.9616, -0.0383552
44.6492, -0.0469064
46.2578, -0.0217687
46.9444, -0.0411725
48.1855, -0.0187352
48.5035, -0.0544052
49.8826, -0.0292595
51.3949, -0.0529556
52.5892, -0.0409818
53.0919, -0.06348
54.1935, -0.0615804
55.0648, -0.0693627
56.398, -0.0438278
57.4031, -0.0927001
57.4998, -0.0396027
58.4129, -0.0915725
59.3306, -0.0931549
60.2016, -0.103263
60.3362, -0.137376
60.8852, -0.155225
62.0788, -0.151003
62.4437, -0.175822
63.2689, -0.185153
63.6798, -0.208811
64.4126, -0.224728
64.777, -0.254585
65.5105, -0.263138