File: composite-ufjc-scission-characterization/AFM_chain_tensile_test_curve_fit_data/sakai-et-al-ps-c-c-chain-a-force-pN-vs-chain-end-to-end-distance-nm.csv
2.66846, -10.0675
2.99191, -10.0675
3.06379, 2.19865
3.13567, -7.86885
3.20755, -7.5217
3.56694, -5.78592
3.63881, -5.43877
3.78257, -2.89296
4.03414, -5.55448
4.07008, 0.925747
4.14196, 3.81871
4.42947, 5.32305
4.53729, -1.38862
5.00449, -1.15718
5.25606, 4.51302
5.25606, 3.1244
5.292, 8.44744
5.54358, 23.3751
5.68733, 15.1591
5.79515, 7.40598
5.86703, 0.115718
6.1186, 13.5391
6.22642, 19.7878
6.40611, 10.6461
6.51393, 26.4995
6.83738, 9.60463
7.01707, 10.4147
7.77179, 2.08293
7.91554, 3.81871
7.91554, 6.01736
8.23899, 5.20733
8.59838, -0.462874
8.74214, 5.90164
8.81402, -0.810029
9.17341, 11.109
9.17341, 6.13308
9.24528, -1.62006
9.64061, 9.60463
10.3594, 9.14176
10.3953, -3.58727
10.3953, 0.578592
10.3953, 6.13308
10.8985, 1.85149
10.8985, 8.7946
11.2579, 10.1832
11.4016, -6.71167
11.5094, 10.1832
11.5454, 13.5391
11.5813, -2.31437
11.5813, 16.6635
12.372, 3.35583
12.5876, 6.59595
12.7314, 14.3491
12.8032, -2.77724
13.0189, 2.43009
13.3064, 6.01736
13.3064, 5.09161
13.3423, 7.86885
13.6298, 6.01736
13.6298, 4.51302
14.097, -0.694311
14.133, 4.3973
14.6002, 7.63742
14.6002, -2.77724
14.6721, -1.2729
14.7799, 10.7618
14.8877, 14.9277
14.9236, 4.16586
15.3549, 7.5217
15.6065, 14.6962
15.894, -1.50434
15.9299, 1.62006
16.3612, 7.63742
16.5409, -4.16586
16.5409, 15.0434
16.5768, 2.54581
16.9362, 2.19865
16.9362, 20.0193
17.3315, 17.1263
17.3675, 4.3973
17.4034, 2.54581
17.5831, 15.5063
18.0503, 13.5391
18.3019, 0.810029
18.4097, 7.98457
18.5175, 12.2662
18.7332, 13.1919
18.805, 10.0675
18.9847, 14.1176
19.5597, 10.6461
19.7394, -0.231437
20.027, 2.54581
20.3145, 5.6702
20.3863, 4.3973
20.8535, 6.59595
20.8895, 3.93443
21.0332, 9.72035
21.3926, 7.05882
21.6801, -8.91032
21.7161, 4.97589
21.7161, 9.60463
21.8239, 12.2662
22.5427, -0.694311
22.6864, 7.29026
22.8302, -4.05014
23.0818, 3.70299
23.2255, 7.29026
23.6208, 5.90164
24.1599, -3.1244
24.2677, 3.00868
24.3037, -1.15718
24.3396, 1.62006
24.4834, 8.67888
24.6271, 1.38862
24.6271, 3.00868
24.8068, 4.62874
25.1662, 1.15718
25.1662, 11.919
25.4537, 7.40598
25.6334, -4.62874
25.7412, 6.94311
26.1366, 6.71167
26.2084, -0.115718
26.6038, 9.83607
26.6397, 0.231437
26.7475, 1.50434
26.9632, 15.8534
27.071, 2.31437
27.071, 6.48023
27.3585, 17.1263
27.4304, 8.56316
27.6101, 18.5149
27.8976, 8.44744
27.8976, 16.6635
28.1851, 13.5391
28.6523, 8.33173
28.9398, 19.5564
28.9398, 4.62874
29.0476, 13.4233
29.5867, 20.4822
29.6226, 9.02604
29.6586, 10.7618
30.1617, 13.5391
30.2336, 7.40598
30.2695, 15.5063
30.4133, 16.0849
30.4133, 21.9865
31.168, 8.10029
31.2758, 20.4822
31.3836, 24.1851
31.3836, 12.729
31.4555, 6.59595
31.5274, 23.838
32.0305, 20.4822
32.1024, 12.8447
32.3181, 33.5583
32.3899, 26.3838
32.4618, 33.3269
32.4978, 13.3076
33.1447, 32.864
33.2165, 23.9537
33.2165, 20.8293
33.7197, 22.4494
34.4025, 10.6461
34.4025, 21.2922
34.6181, 21.8708
34.69, 10.1832
34.7619, 28.4667
34.7978, 22.3337
34.8697, 31.8226
35.1213, 17.242
35.301, 28.1196
35.4447, 30.4339
35.6604, 32.9797
35.7682, 20.3664
36.0198, 26.3838
36.2713, 33.7898
36.6307, 18.8621
36.6667, 29.9711
36.8464, 29.0453
36.8464, 33.7898
37.1698, 28.4667
37.2776, 31.8226
37.673, 25.8052
37.8886, 35.1784
37.9964, 21.6393
38.1042, 24.8795
38.1042, 39.3443
38.212, 31.7068
38.4996, 41.08
38.5355, 35.2941
39.0746, 36.2199
39.1105, 32.7483
39.1105, 40.27
39.434, 36.567
39.5058, 39.2285
39.6855, 45.3616
39.6855, 48.7175
39.7934, 35.757
40.1168, 45.4773
40.2606, 54.3877
40.2965, 43.8573
40.3324, 49.6432
40.5481, 51.2633
40.7278, 61.6779
40.8715, 52.8833
41.0153, 63.7608
41.2309, 55.082
41.4825, 67.9267
41.5544, 62.9508
41.6262, 56.0077
42.0216, 74.0598
42.0575, 59.7107
42.1294, 63.9923
42.2013, 77.9942
42.2372, 64.3394
42.3091, 71.9769
42.5606, 79.4986
42.5606, 75.9113
42.8841, 83.7801
42.8841, 77.9942
43.0638, 86.4417
43.1716, 108.775
43.2435, 98.8235
43.2435, 88.2932
43.3154, 89.6818
43.4951, 97.3192
43.6029, 104.841
43.7107, 108.775
43.7466, 113.057
43.8904, 112.478
43.9982, 120.231
44.106, 111.9
44.1779, 121.62
44.2138, 137.473
44.2857, 129.952
44.2857, 114.214
44.3217, 123.819