File: composite-ufjc-scission-characterization/AFM_chain_tensile_test_curve_fit_data/wang-et-al-pdma-c-c-chain-a-force-pN-vs-chain-end-to-end-distance-nm.csv
15.6025, 4.34446
39.6446, 2.64508
65.2702, 1.77486
93.4937, 0.48175
116.582, 3.60774
145.294, 6.06016
167.153, 5.1122
193.988, 2.76218
220.563, 0.305035
246.758, 4.08603
271.941, 4.54785
300.677, 2.43847
324.633, 3.32173
349.951, 4.27789
372.492, 1.32943
395.611, 2.44324
413.435, 5.74531
429.707, 23.6847
445.899, 54.6406
460.478, 106.522
470.525, 173.392
475.938, 260.375
481.319, 360.647
484.631, 448.443
489.949, 541.488
491.861, 642.266
495.059, 744.662
499.48, 851.491
504.159, 950.571