File: composite-ufjc-scission-characterization/AFM_chain_tensile_test_curve_fit_data/wang-et-al-pdma-c-c-chain-b-force-pN-vs-chain-end-to-end-distance-nm.csv
13.086, 2.50288
31.5118, 3.63999
56.8224, 5.34757
82.987, 7.66307
105.941, 7.0025
136.064, 6.67789
158.885, 7.37223
186.022, 6.18569
211.933, 3.34313
238.141, 5.89985
263.386, 4.2737
291.448, 3.87328
314.269, 4.90201
340.307, 0.231913
368.187, 8.12
392.034, -3.49278
419.9, 4.26028
444.816, 2.38704
467.307, 9.78647
485.144, 49.6914
496.137, 104.196
503.169, 174.924
510.099, 254.377
516.105, 336.06
520.315, 434.716
522.235, 519.678
526.385, 625.612
529.99, 704.267
533.575, 810.762
537.076, 913.766
539.846, 1006.59
542.952, 1127.92
543.878, 1246.91
548.539, 1348.22
551.452, 1432.39