File: composite-ufjc-scission-characterization/AFM_chain_tensile_test_curve_fit_data/wang-et-al-pdma-c-c-chain-c-force-pN-vs-chain-end-to-end-distance-nm.csv
17.9592, 7.16917
42.1225, 16.0563
67.352, 21.1351
95.5208, 20.3106
119.921, 7.96961
147.31, 13.0085
169.523, 12.8608
195.979, 1.78744
222.725, 5.78968
248.38, 8.54693
273.791, 4.52575
302.691, 6.31833
327.103, 7.9217
352.996, 2.67002
377.065, 4.92767
404.792, 2.89548
432.769, 4.6134
456.592, 7.56952
482.488, 5.84018
506.188, 5.2235
536.491, 6.18755
558.555, 10.2935
586.081, 8.01947
612.476, 9.9436
637.878, 10.2103
663.774, 8.21509
689.671, 7.34376
715.565, 2.55411
741.468, 8.41071
758.156, 19.5479
775.063, 29.3172
794.99, 31.8887
815.049, 42.7808
831.561, 50.0329
846.817, 69.0634
858.91, 103.47
869.715, 150.175
877.785, 224.212
886.516, 308.824
894.141, 394.267
901.117, 470.954
907.078, 555.403
912.895, 632.244
919.157, 712.069
923.844, 786.658
929.463, 864.319
933.21, 949.572