File: composite-ufjc-scission-characterization/AFM_chain_tensile_test_curve_fit_data/yamamoto-et-al-pmma-c-c-chain-c-force-nN-vs-chain-end-to-end-distance-nm.csv
110.313, -0.0504878
113.145, -0.0528395
116.168, -0.0622991
118.806, -0.0594388
121.839, -0.0627372
124.884, -0.0584525
127.473, -0.0849765
130.325, -0.0754798
133.777, -0.0707186
136.568, -0.0972413
139.186, -0.106229
141.999, -0.119956
144.809, -0.135104
147.772, -0.179635
150.341, -0.218007
153.109, -0.258274
155.449, -0.312288