File: composite-ufjc-scission-characterization/AFM_chain_tensile_test_curve_fit_data/yamamoto-et-al-pmma-c-c-chain-d-force-nN-vs-chain-end-to-end-distance-nm.csv
150.997, -0.0696619
154.037, -0.0682209
155.451, -0.0710556
156.661, -0.0738916
157.67, -0.0762548
158.679, -0.0786181
159.486, -0.0805088
160.697, -0.0833447
161.906, -0.0866546
162.508, -0.0904423
163.509, -0.097071
164.107, -0.102754
164.911, -0.107015
165.309, -0.110804
165.708, -0.114593
167.32, -0.119796
168.327, -0.123107
169.131, -0.126893
170.136, -0.131152
170.737, -0.135414
171.539, -0.140148
172.139, -0.144884
172.526, -0.155308
172.708, -0.167629
173.295, -0.179948
173.882, -0.192266
174.474, -0.201741
175.678, -0.208369
176.276, -0.214052
176.874, -0.219735
177.27, -0.22542
177.463, -0.230632
178.059, -0.237737
178.249, -0.245319
179.046, -0.252897
180.046, -0.260948
181.047, -0.26805
181.433, -0.278948
181.999, -0.303589
182.02, -0.291267
182.788, -0.31638
183.559, -0.339598
183.577, -0.328698
184.145, -0.352391
184.935, -0.364234
185.318, -0.377502
185.695, -0.394087
186.073, -0.410199
186.654, -0.426309
187.245, -0.435784