File: composite-ufjc-scission-characterization/AFM_chain_tensile_test_curve_fit_data/yamamoto-et-al-pmma-c-c-chain-b-force-nN-vs-chain-end-to-end-distance-nm.csv
99.3473, -0.0666708
100.753, -0.0737709
101.556, -0.0780312
102.156, -0.0827668
102.958, -0.0875011
103.559, -0.0917627
104.362, -0.096023
104.959, -0.10218
105.559, -0.106916
106.157, -0.112599
106.549, -0.12018
107.142, -0.129181
107.532, -0.138183
108.123, -0.147658
108.919, -0.156184
109.513, -0.164237
110.107, -0.172764
110.702, -0.180343
111.294, -0.189344
111.68, -0.200716
112.065, -0.212562
112.651, -0.225354
113.439, -0.23862
114.027, -0.250464
114.41, -0.263258
114.796, -0.27463
115.182, -0.286476
115.568, -0.297374
115.953, -0.309694
116.303, -0.342393
117.058, -0.37509
117.407, -0.408263
117.761, -0.438592
118.32, -0.467025
118.474, -0.495934
119.033, -0.52484
119.399, -0.548061