File: composite-ufjc-scission-characterization/AFM_chain_tensile_test_curve_fit_data/yamamoto-et-al-pmma-c-c-chain-e-force-nN-vs-chain-end-to-end-distance-nm.csv
164.862, -0.0160198
167.272, -0.0283269
169.517, -0.0183601
171.935, -0.0254538
174.778, -0.0216444
177.189, -0.0334775
179.627, -0.0291967
181.838, -0.0391353
184.69, -0.0296386
186.898, -0.041473
189.74, -0.0381375
192.571, -0.0409632
194.579, -0.0513771
196.814, -0.0470975
199.233, -0.0546652
201.875, -0.0489613
204.273, -0.0688514
206.904, -0.0697826
208.912, -0.0806704
211.942, -0.0853906
214.775, -0.0872684
216.575, -0.101001
219.218, -0.0952972
221.385, -0.131776
223.809, -0.135553
226.422, -0.147384
228.615, -0.168698
231.206, -0.193326
233.601, -0.214638
235.791, -0.237373
238.338, -0.288541
240.476, -0.342082
242.401, -0.401786