File: composite-ufjc-scission-characterization/AFM_chain_tensile_test_curve_fit_data/yamamoto-et-al-pmma-c-c-chain-a-force-nN-vs-chain-end-to-end-distance-nm.csv
57.8672, -0.0394448
58.6703, -0.0437051
59.4734, -0.0479654
60.0723, -0.0531749
60.6744, -0.0564886
61.2733, -0.0616981
62.074, -0.0673803
62.8746, -0.0730624
63.4791, -0.0749543
64.0828, -0.0773202
64.8899, -0.0792108
65.4888, -0.0844203
65.6842, -0.0886845
66.0789, -0.0948431
66.4761, -0.0995799
66.8724, -0.104791
67.6739, -0.109999
68.6779, -0.115206
69.477, -0.121836
69.8677, -0.130364
70.0567, -0.13842
71.0551, -0.146944
71.2417, -0.156422
71.6164, -0.174429
72.3931, -0.194329
72.7622, -0.215654
73.3331, -0.237451
73.6967, -0.262094
74.2628, -0.286735
74.6247, -0.312325
75.174, -0.346918
75.7161, -0.385777
75.8523, -0.425113
76.5769, -0.475819
76.8917, -0.529372
77.4074, -0.583871