File: composite-ufjc-scission-characterization/AFM_chain_tensile_test_curve_fit_data/zhang-et-al-pnipam-c-c-chain-a-force-pN-vs-chain-end-to-end-distance-nm.csv
102.632, -85.8771
106.596, -80.972
110.561, -86.234
114.525, -74.9744
118.49, -71.9757
122.455, -79.7794
126.42, -88.2185
130.384, -75.0527
134.349, -82.8564
138.314, -83.0348
142.278, -70.5044
146.243, -75.7664
150.205, -46.7145
154.17, -46.8929
158.135, -55.332
162.099, -38.989
166.065, -60.7724
170.028, -35.5332
174.586, -18.4543
178.619, -39.8595
183.243, -23.4191
187.86, -23.6063
191.675, -23.9266
196.124, -23.6158
200.423, -22.0936
203.72, -34.7034
207.016, -24.1695
210.651, -38.3643
215.281, -43.7454
220.248, -43.969
224.213, -48.0047
228.327, -36.9199
232.142, -36.745
236.108, -48.5399
240.073, -56.433
244.367, -42.6268
247.007, -8.49626
249.386, -49.6822
251.813, -14.2739
255.931, -42.626
259.896, -53.4678
263.861, -49.7889
267.826, -57.6819
271.789, -35.6697
275.754, -38.7523
279.903, -46.9077
283.683, -27.69
286.98, -46.9274
291.349, -49.075
295.579, -58.9755
299.709, -55.7806
303.838, -47.7753
307.472, -42.1306
311.173, -48.8679
315.402, -44.483
319.367, -56.2333
323.331, -44.8399
327.296, -52.0974
331.261, -49.1433
335.226, -50.5926
339.19, -49.5001
343.155, -49.6786
347.12, -49.857
351.085, -49.3999
355.049, -43.1793
359.014, -50.3922
362.979, -50.5706
366.943, -49.4782
370.574, -48.3707
374.873, -51.1059
378.837, -44.8853
383.137, -49.5715
387.101, -49.7499
390.731, -46.1006
394.696, -42.4664
398.66, -36.9258
402.625, -37.1042
406.59, -37.2827
410.291, -48.1246
414.519, -37.6395
418.248, -37.2626
422.448, -27.8293
426.149, -40.4505
430.376, -12.9355
434.293, -7.4836
438.303, 8.31268
442.267, 25.6346
446.228, 64.2817
449.825, 105.696
452.351, 155.526
454.476, 205.842
455.463, 259.174
457.111, 303.104
457.987, 363.273
458.753, 419.793
459.962, 458.5
460.218, 509.74
461.709, 547.561
462.227, 589.299
462.28, 627.587
462.675, 655.558
463.671, 688.585
464.344, 728.092
465.006, 767.314
465.479, 806.126
465.652, 853.899
466.573, 900.238
466.946, 943.483
467.948, 1000.58
468.993, 1052.57
469.269, 1102.92
470.255, 1168.46